#FORMAT      : EMSA/MAS Spectral Data File
#VERSION     : 1.0
#TITLE       : LiF_in_between_30kV
#DATE        : 
#TIME        : 
#OWNER       : 
#NPOINTS     : 1024
#NCOLUMNS    : 1
#XUNITS      : eV
#YUNITS      : 
#DATATYPE    : XY
#XPERCHAN    : 0.05257813
#OFFSET      : 35.02
#SIGNALTYPE  : EELS
#XLABEL      : 
#COMMENT     : File created by HyperSpy version 1.3.2
#SPECTRUM,    : Spectral Data Starts Here
35.02, 2264.28
35.0726, 5843.01
35.1252, 3430.01
35.1777, 2375.38
35.2303, 2919.23
35.2829, 1055.66
35.3355, 860.599
35.388, 1221.74
35.4406, 3096.8
35.4932, 3031.98
35.5458, 2066.49
35.5984, -672.25
35.6509, 137.958
35.7035, 2714.33
35.7561, 3033.96
35.8087, 2875.67
35.8613, 1845.67
35.9138, 2717.26
35.9664, 1048.85
36.019, -337.248
36.0716, 438.472
36.1241, 477.918
36.1767, -1213.2
36.2293, -2914.78
36.2819, -1309.31
36.3345, 912.825
36.387, 558.922
36.4396, 584.793
36.4922, 299.947
36.5448, -1394.51
36.5973, -1074.07
36.6499, -1799.63
36.7025, -850.47
36.7551, 1092.11
36.8077, -1103.79
36.8602, -1912.35
36.9128, -1904.37
36.9654, -141.641
37.018, -405.555
37.0705, -2203.5
37.1231, 1066.82
37.1757, 969.915
37.2283, -388.001
37.2809, -1227.93
37.3334, -914.65
37.386, 48.9304
37.4386, -1106.98
37.4912, -67.2629
37.5438, -594.523
37.5963, -4092.75
37.6489, -3160.04
37.7015, -1144.98
37.7541, -2238.17
37.8066, 3536.7
37.8592, 2665.74
37.9118, 1069.75
37.9644, 841.942
38.017, 216.516
38.0695, -2061.22
38.1221, -1049.35
38.1747, -302.385
38.2273, -2438.01
38.2798, -2581.01
38.3324, -2508.99
38.385, -359.944
38.4376, 2473.64
38.4902, -1273.74
38.5427, -2443.47
38.5953, -1213.55
38.6479, 3838.84
38.7005, 3662.58
38.753, 303.8
38.8056, -2972.11
38.8582, -1307.83
38.9108, -2929.27
38.9634, -4830.81
39.0159, -1306.66
39.0685, -26.5985
39.1211, -895.729
39.1737, 694.457
39.2263, -2119.64
39.2788, -3827.7
39.3314, -1168.14
39.384, 76.0646
39.4366, 809.71
39.4891, -850.696
39.5417, -2063.35
39.5943, -25.2437
39.6469, -377.474
39.6995, -1519.64
39.752, -3044.82
39.8046, -3334.73
39.8572, -3006.65
39.9098, -2652.89
39.9623, -1907.73
40.0149, -1503.27
40.0675, 189.696
40.1201, 888.97
40.1727, -640.842
40.2252, 1292.86
40.2778, 120.596
40.3304, -502.344
40.383, 1075.75
40.4355, 951.781
40.4881, 1466.46
40.5407, 716.678
40.5933, -180.747
40.6459, -129.415
40.6984, -631.821
40.751, -799.562
40.8036, -853.231
40.8562, -9.52532
40.9088, -1989.14
40.9613, -2693.27
41.0139, -2110.01
41.0665, -369.36
41.1191, 474.289
41.1716, 1190.34
41.2242, 3201.7
41.2768, -809.037
41.3294, 367.045
41.382, 1901.55
41.4345, 740.47
41.4871, -1333.18
41.5397, 1309.9
41.5923, 1312.32
41.6448, -920.518
41.6974, 706.685
41.75, -585.265
41.8026, 1030.34
41.8552, 727.596
41.9077, -1422.28
41.9603, -1119.9
42.0129, -2111.05
42.0655, -2431.23
42.118, 1870.07
42.1706, 1785.15
42.2232, 1227.41
42.2758, 554.56
42.3284, -88.2999
42.3809, 843.036
42.4335, 363.67
42.4861, 673.707
42.5387, 2356.75
42.5913, 1235.2
42.6438, -2009.33
42.6964, -1233.15
42.749, -1873.94
42.8016, -1082.61
42.8541, 1003.75
42.9067, 1439.74
42.9593, -981.538
43.0119, 2275.73
43.0645, 3759.63
43.117, 1064.08
43.1696, -1003.52
43.2222, -3812.62
43.2748, 1010.95
43.3273, 1738.12
43.3799, 2139.25
43.4325, -1881.07
43.4851, -244.381
43.5377, 2169.16
43.5902, 1131.78
43.6428, 1968.08
43.6954, 2570.16
43.748, 876.325
43.8005, 326.641
43.8531, 226.02
43.9057, 1975.38
43.9583, 2106.12
44.0109, 1352.89
44.0634, 2813.62
44.116, 4734.38
44.1686, 4487.55
44.2212, 2229.71
44.2738, -77.2521
44.3263, 2178.08
44.3789, 2298.56
44.4315, 3428.19
44.4841, 3186.99
44.5366, 4982.23
44.5892, 1452.77
44.6418, 3054.45
44.6944, 2666.21
44.747, 2951.64
44.7995, 3091.29
44.8521, -231.106
44.9047, 753.365
44.9573, 1263.39
45.0098, 2901.34
45.0624, 1476.46
45.115, 962.597
45.1676, 379.867
45.2202, 143.517
45.2727, -1722.85
45.3253, 90.6382
45.3779, 623.065
45.4305, 1294.73
45.483, -612.554
45.5356, -1209.07
45.5882, -57.567
45.6408, 1283.81
45.6934, 3524.11
45.7459, 2777.48
45.7985, 539.181
45.8511, 79.1154
45.9037, 297.944
45.9563, 655.921
46.0088, -99.102
46.0614, -2494.43
46.114, -1318.06
46.1666, 655.575
46.2191, -18.0127
46.2717, 180.853
46.3243, -2350.95
46.3769, -3121.05
46.4295, 569.3
46.482, -659.239
46.5346, -299.723
46.5872, -613.63
46.6398, -153.947
46.6923, -2473.03
46.7449, -194.162
46.7975, 264.784
46.8501, 91.6802
46.9027, 1209.11
46.9552, 1113.54
47.0078, 29.0163
47.0604, -1245.87
47.113, -1793.81
47.1655, -2255.76
47.2181, -66.096
47.2707, 932.867
47.3233, 656.209
47.3759, 560.124
47.4284, 480.542
47.481, -1009.3
47.5336, -2234.85
47.5862, -1885.65
47.6388, -383.087
47.6913, -1412.65
47.7439, -1507.74
47.7965, -1106.53
47.8491, 1224.64
47.9016, -46.3497
47.9542, 1190.74
48.0068, -496.982
48.0594, -454.504
48.112, 497.976
48.1645, -2748.87
48.2171, -1928.7
48.2697, -2345.18
48.3223, -2568.08
48.3748, -795.585
48.4274, -2454.62
48.48, -3018.46
48.5326, -411.602
48.5852, 176.747
48.6377, -2774.02
48.6903, -4421.15
48.7429, -2897.41
48.7955, -911.58
48.848, -1758.12
48.9006, -599.922
48.9532, -162.989
49.0058, -2924.85
49.0584, -2878.49
49.1109, -2674.73
49.1635, -804.263
49.2161, 314.707
49.2687, -212.199
49.3213, -2062.68
49.3738, -2782.73
49.4264, -2554.45
49.479, -2397.74
49.5316, -1676.53
49.5841, -2642.47
49.6367, -3322.61
49.6893, -3583.13
49.7419, -3241.44
49.7945, -2510.9
49.847, -3182.98
49.8996, -2287.24
49.9522, -4765.28
50.0048, -3910.18
50.0573, -2574.96
50.1099, -3900.87
50.1625, -6035.78
50.2151, -3618.43
50.2677, -3339.61
50.3202, -3269.52
50.3728, -3734.97
50.4254, -2708.8
50.478, -2921.88
50.5305, -3588.33
50.5831, -3382.97
50.6357, -3197.27
50.6883, -3013.66
50.7409, -3680.17
50.7934, -3313.23
50.846, -4796.33
50.8986, -3676.09
50.9512, -1734.54
51.0038, -3533.24
51.0563, -4214.59
51.1089, -3912.84
51.1615, -5193.88
51.2141, -3069.36
51.2666, -3029.62
51.3192, -3311.4
51.3718, -3291.05
51.4244, -3792.74
51.477, -3799.7
51.5295, -4688.49
51.5821, -2651.08
51.6347, -2715.01
51.6873, -3310.42
51.7398, -4125.13
51.7924, -4115.84
51.845, -4423.99
51.8976, -4180.77
51.9502, -5865.9
52.0027, -4821.96
52.0553, -4289.74
52.1079, -4661.24
52.1605, -3335.42
52.213, -3339.63
52.2656, -3567.76
52.3182, -5443.54
52.3708, -5774.56
52.4234, -6682.29
52.4759, -7010.52
52.5285, -6405.91
52.5811, -5807.61
52.6337, -5346.07
52.6863, -6514.83
52.7388, -6288.52
52.7914, -6220.86
52.844, -6581.37
52.8966, -4801.43
52.9491, -3836.65
53.0017, -5840.56
53.0543, -5962.33
53.1069, -4290.3
53.1595, -4387.77
53.212, -4521.53
53.2646, -4950.72
53.3172, -4941.99
53.3698, -6418.73
53.4223, -6927.51
53.4749, -5651.48
53.5275, -6335.03
53.5801, -6984.52
53.6327, -6799.7
53.6852, -8263.98
53.7378, -7440.04
53.7904, -6712.91
53.843, -5993.14
53.8955, -5177.25
53.9481, -6107.82
54.0007, -6367.85
54.0533, -7355.17
54.1059, -6270.85
54.1584, -5962.63
54.211, -6103.83
54.2636, -6666.2
54.3162, -4762.86
54.3688, -7082.58
54.4213, -6183.39
54.4739, -7063.61
54.5265, -7125.6
54.5791, -5640.99
54.6316, -5241.14
54.6842, -5340.66
54.7368, -7969.89
54.7894, -6344.22
54.842, -5778.18
54.8945, -6956.72
54.9471, -7220.86
54.9997, -6314.82
55.0523, -4843.66
55.1048, -5461.84
55.1574, -6154.6
55.21, -6146.2
55.2626, -6128.96
55.3152, -8485.16
55.3677, -6351.43
55.4203, -4455.48
55.4729, -5398.58
55.5255, -6586.14
55.578, -6157.59
55.6306, -4759.17
55.6832, -3346.72
55.7358, -4406.23
55.7884, -4162.71
55.8409, -2925.96
55.8935, -3504.77
55.9461, -4251.39
55.9987, -3568.45
56.0513, -1333.25
56.1038, -277.274
56.1564, -272.31
56.209, 1061.51
56.2616, 1662.8
56.3141, 970.749
56.3667, 3618.6
56.4193, 2434.59
56.4719, 2060.19
56.5245, 3268.15
56.577, 4420.94
56.6296, 6230.75
56.6822, 4584.53
56.7348, 4493.72
56.7873, 4394.79
56.8399, 4445.96
56.8925, 3345.12
56.9451, 2716.33
56.9977, 3630.34
57.0502, 5353.9
57.1028, 6401.04
57.1554, 5143.64
57.208, 3791.9
57.2605, 3777.4
57.3131, 4894.67
57.3657, 3881.86
57.4183, 4187.34
57.4709, 2728.99
57.5234, 3317.49
57.576, 3259.47
57.6286, 3623.61
57.6812, 5333.5
57.7338, 5029.07
57.7863, 4448.15
57.8389, 3860.23
57.8915, 3046.94
57.9441, 1672.38
57.9966, 3201.56
58.0492, 2464.79
58.1018, 2411.43
58.1544, 967.901
58.207, 2277.71
58.2595, 3848.96
58.3121, 3086.74
58.3647, 2745.94
58.4173, 2056.36
58.4698, 4119.51
58.5224, 4949.29
58.575, 3332.11
58.6276, 3617.56
58.6802, 3725.51
58.7327, 2869.98
58.7853, 3304.2
58.8379, 3692.27
58.8905, 3137.81
58.943, 2097.26
58.9956, 4113.27
59.0482, 6340.55
59.1008, 7229.11
59.1534, 5430.01
59.2059, 6709.82
59.2585, 7169.97
59.3111, 6039.68
59.3637, 6662.6
59.4163, 6927.87
59.4688, 7925.86
59.5214, 7864.21
59.574, 8510.17
59.6266, 8330.75
59.6791, 7828.94
59.7317, 7279.98
59.7843, 7121.73
59.8369, 8136.65
59.8895, 8750.61
59.942, 6740.14
59.9946, 7095.62
60.0472, 7444.06
60.0998, 6137.69
60.1523, 7394.44
60.2049, 8259.18
60.2575, 7681.98
60.3101, 10530.6
60.3627, 9175.34
60.4152, 8762.16
60.4678, 8323.89
60.5204, 7541.14
60.573, 6833.4
60.6255, 8936.27
60.6781, 10513.1
60.7307, 9469.21
60.7833, 9273.63
60.8359, 9589.18
60.8884, 9963.63
60.941, 9866.07
60.9936, 9386.19
61.0462, 10839.1
61.0988, 10702.8
61.1513, 10190.7
61.2039, 9309.69
61.2565, 7947.07
61.3091, 10831.2
61.3616, 11217.2
61.4142, 11733.3
61.4668, 11042.5
61.5194, 13266.6
61.572, 13663.6
61.6245, 14360
61.6771, 11983.5
61.7297, 13018.1
61.7823, 14082.1
61.8348, 15617.9
61.8874, 17329.4
61.94, 14992.2
61.9926, 14115.9
62.0452, 15328.1
62.0977, 16373.5
62.1503, 15714.1
62.2029, 15965.1
62.2555, 16384.5
62.308, 18364.5
62.3606, 19644.2
62.4132, 19377.5
62.4658, 19519.3
62.5184, 19712.5
62.5709, 19451.7
62.6235, 19825.3
62.6761, 20637.2
62.7287, 22224.2
62.7813, 24306.3
62.8338, 23449
62.8864, 25217.2
62.939, 25463.8
62.9916, 29963.4
63.0441, 30621.9
63.0967, 27221.2
63.1493, 28911.8
63.2019, 31082.3
63.2545, 29384.4
63.307, 28452.1
63.3596, 29715.5
63.4122, 28370.1
63.4648, 29188.9
63.5173, 28227.3
63.5699, 26233.1
63.6225, 27025.6
63.6751, 26670
63.7277, 26122.8
63.7802, 24410.3
63.8328, 25492.2
63.8854, 26176.6
63.938, 26832
63.9905, 27347.6
64.0431, 25887.4
64.0957, 23296.3
64.1483, 24599.3
64.2009, 24711.9
64.2534, 26262.7
64.306, 25619.1
64.3586, 25422.5
64.4112, 24538.5
64.4638, 24178.9
64.5163, 24027.1
64.5689, 25575.6
64.6215, 25132.7
64.6741, 25783
64.7266, 26096.2
64.7792, 23546.5
64.8318, 21571.1
64.8844, 21918.7
64.937, 22322.8
64.9895, 22871.9
65.0421, 24644.2
65.0947, 27045
65.1473, 26743.7
65.1998, 23021.8
65.2524, 23323.6
65.305, 23939.1
65.3576, 26321.6
65.4102, 25721.8
65.4627, 25264.9
65.5153, 25373.6
65.5679, 26310.2
65.6205, 25546.7
65.673, 24968.6
65.7256, 23504.1
65.7782, 24418.6
65.8308, 25736
65.8834, 25710.1
65.9359, 26662
65.9885, 25251.4
66.0411, 24620.8
66.0937, 26302.2
66.1463, 27676.9
66.1988, 26907.7
66.2514, 25622.1
66.304, 27178.7
66.3566, 27900.4
66.4091, 26014.9
66.4617, 24567
66.5143, 25950.3
66.5669, 25947.3
66.6195, 26519.4
66.672, 24821.4
66.7246, 25416.5
66.7772, 25694.7
66.8298, 29459.6
66.8823, 29106
66.9349, 25217.6
66.9875, 26856.7
67.0401, 29111.9
67.0927, 27060.8
67.1452, 26334
67.1978, 26692.3
67.2504, 27022.8
67.303, 27343.2
67.3555, 25557
67.4081, 26499.4
67.4607, 27040.7
67.5133, 30068.5
67.5659, 28132.4
67.6184, 27668.2
67.671, 28591
67.7236, 27655.4
67.7762, 27587.6
67.8288, 26019.3
67.8813, 27425.9
67.9339, 27593.8
67.9865, 27707
68.0391, 28151.4
68.0916, 28986.3
68.1442, 26745.5
68.1968, 28658.6
68.2494, 29029.3
68.302, 29047.4
68.3545, 27428.9
68.4071, 26131.3
68.4597, 26142.7
68.5123, 26603.3
68.5648, 28303.9
68.6174, 27307.3
68.67, 28223.7
68.7226, 28570.8
68.7752, 27520.6
68.8277, 26495.2
68.8803, 25696.8
68.9329, 27500.2
68.9855, 27320.2
69.0381, 28158.7
69.0906, 28126.4
69.1432, 27070.2
69.1958, 29095.8
69.2484, 29463.9
69.3009, 29044.1
69.3535, 27615
69.4061, 29885.2
69.4587, 30344.4
69.5113, 30252.1
69.5638, 29453.3
69.6164, 30069.7
69.669, 28767.5
69.7216, 28772.2
69.7741, 27563.9
69.8267, 29869
69.8793, 29714.3
69.9319, 27763
69.9845, 28602.4
70.037, 30861.5
70.0896, 29737.7
70.1422, 29679.1
70.1948, 30759.2
70.2473, 29306.9
70.2999, 29410.8
70.3525, 27414.9
70.4051, 31045.7
70.4577, 30801.3
70.5102, 29895.2
70.5628, 29877.2
70.6154, 30628.4
70.668, 30676.6
70.7206, 30056.1
70.7731, 32154.6
70.8257, 29216.2
70.8783, 28855.6
70.9309, 27381.1
70.9834, 28153.8
71.036, 28630
71.0886, 30412
71.1412, 28575.3
71.1938, 30392.8
71.2463, 29399.9
71.2989, 28945
71.3515, 31503.3
71.4041, 31738.2
71.4566, 30087.9
71.5092, 29221.4
71.5618, 29294.2
71.6144, 28532.6
71.667, 29123.8
71.7195, 29886.1
71.7721, 28478.8
71.8247, 27456.3
71.8773, 27499.6
71.9298, 28168.8
71.9824, 27751.2
72.035, 26301
72.0876, 26746.5
72.1402, 27387.4
72.1927, 26264.6
72.2453, 27599.7
72.2979, 28037.6
72.3505, 27087.5
72.4031, 27065.6
72.4556, 26187.3
72.5082, 26602.7
72.5608, 27560.3
72.6134, 25441.2
72.6659, 26657.7
72.7185, 25584.2
72.7711, 26144.5
72.8237, 24534.1
72.8763, 25629.7
72.9288, 25438
72.9814, 26338.9
73.034, 25707.2
73.0866, 26091.6
73.1391, 26029.1
73.1917, 24530.1
73.2443, 27341.8
73.2969, 27208.3
73.3495, 26612.9
73.402, 26325.6
73.4546, 24767.5
73.5072, 27198.7
73.5598, 24854.7
73.6123, 23617.1
73.6649, 24002
73.7175, 24915.6
73.7701, 23802.2
73.8227, 25539.1
73.8752, 24281
73.9278, 21875
73.9804, 23774.2
74.033, 24721.7
74.0856, 24386.8
74.1381, 24001.5
74.1907, 23027.1
74.2433, 23874.3
74.2959, 25200.4
74.3484, 24863.1
74.401, 24095.4
74.4536, 23476.2
74.5062, 22810.7
74.5588, 25492.6
74.6113, 24580.1
74.6639, 24121.8
74.7165, 23926.8
74.7691, 24202.6
74.8216, 23825.5
74.8742, 24032
74.9268, 23533
74.9794, 23926.4
75.032, 22512
75.0845, 22911.2
75.1371, 24306.6
75.1897, 24121.3
75.2423, 24758.2
75.2948, 24428.4
75.3474, 23471.6
75.4, 25166.5
75.4526, 22845.5
75.5052, 22289
75.5577, 21063
75.6103, 23116.1
75.6629, 21793
75.7155, 23452.1
75.7681, 22070.3
75.8206, 22871.5
75.8732, 22306.8
75.9258, 23538.4
75.9784, 23495.1
76.0309, 22926.1
76.0835, 23005.3
76.1361, 23048.9
76.1887, 22634.4
76.2413, 23170.3
76.2938, 23479.8
76.3464, 23234.1
76.399, 23630.5
76.4516, 23312.5
76.5041, 21107.3
76.5567, 21433
76.6093, 22336.4
76.6619, 24641.6
76.7145, 23199.5
76.767, 21962.4
76.8196, 22155.3
76.8722, 23389.2
76.9248, 22210.3
76.9773, 22016.8
77.0299, 20637.4
77.0825, 22704.8
77.1351, 22427.1
77.1877, 22800.9
77.2402, 23958.8
77.2928, 24198.8
77.3454, 23008.8
77.398, 22537.7
77.4506, 22857.5
77.5031, 22107.4
77.5557, 21709.1
77.6083, 23079.5
77.6609, 23218.2
77.7134, 23454.5
77.766, 23505.4
77.8186, 22507
77.8712, 22205.3
77.9238, 23015.7
77.9763, 22547.1
78.0289, 25328.8
78.0815, 25804.7
78.1341, 23732.6
78.1866, 24920.4
78.2392, 25433.4
78.2918, 24298.9
78.3444, 23222.5
78.397, 22343.6
78.4495, 24313
78.5021, 23434.4
78.5547, 23694.2
78.6073, 23558
78.6598, 24057.2
78.7124, 24033.7
78.765, 23860.3
78.8176, 23890.2
78.8702, 24945.7
78.9227, 24851.1
78.9753, 24209.3
79.0279, 24293
79.0805, 22710.8
79.1331, 23064
79.1856, 22195.9
79.2382, 24220.6
79.2908, 23360.8
79.3434, 25272
79.3959, 25255.6
79.4485, 25439.1
79.5011, 24247.5
79.5537, 23447.5
79.6063, 24498
79.6588, 23738.6
79.7114, 25709.1
79.764, 23991.4
79.8166, 24538.7
79.8691, 23326.1
79.9217, 23633
79.9743, 22582.8
80.0269, 23947.8
80.0795, 24163.4
80.132, 22496.6
80.1846, 22708.2
80.2372, 23322.1
80.2898, 23247.1
80.3423, 22163.8
80.3949, 21856.6
80.4475, 21755
80.5001, 22510.5
80.5527, 21895.7
80.6052, 22017.5
80.6578, 21818.5
80.7104, 22233.2
80.763, 20978.3
80.8156, 20095.7
80.8681, 21077.4
80.9207, 21534.1
80.9733, 21691.4
81.0259, 23022.1
81.0784, 20402.6
81.131, 19870.7
81.1836, 20796.9
81.2362, 22087.6
81.2888, 22755.2
81.3413, 21306.6
81.3939, 20957.9
81.4465, 21194.9
81.4991, 22670.5
81.5516, 22783.4
81.6042, 23264.8
81.6568, 22555.8
81.7094, 21214.7
81.762, 21381.9
81.8145, 22907.4
81.8671, 23979
81.9197, 23443.5
81.9723, 22169.1
82.0248, 21108.7
82.0774, 21877.6
82.13, 21857
82.1826, 23105.5
82.2352, 23027.3
82.2877, 23195.4
82.3403, 21353.9
82.3929, 19973.5
82.4455, 20116.3
82.4981, 21130.9
82.5506, 21572.7
82.6032, 21410.2
82.6558, 20736.3
82.7084, 20870.7
82.7609, 21181
82.8135, 21631.5
82.8661, 20497.9
82.9187, 20555.5
82.9713, 21058.5
83.0238, 21411.4
83.0764, 18848.1
83.129, 20183.6
83.1816, 22305.6
83.2341, 20900.6
83.2867, 21178.4
83.3393, 21255.5
83.3919, 21768
83.4445, 22417.2
83.497, 22079.7
83.5496, 20403.3
83.6022, 21238.2
83.6548, 21523.8
83.7073, 19399.2
83.7599, 19518.6
83.8125, 19661
83.8651, 20725.6
83.9177, 21393.7
83.9702, 20329.8
84.0228, 19472.8
84.0754, 19704
84.128, 20007.1
84.1806, 19171.4
84.2331, 19877.3
84.2857, 20521.1
84.3383, 18543
84.3909, 18202
84.4434, 19962.3
84.496, 20793.6
84.5486, 19478
84.6012, 18923.7
84.6538, 20007.8
84.7063, 20031.1
84.7589, 20034.8
84.8115, 19464.5
84.8641, 20237.1
84.9166, 20931.7
84.9692, 20704.9
85.0218, 19897.3
85.0744, 20750.5
85.127, 19642.4
85.1795, 20134.3
85.2321, 21075.1
85.2847, 19603.2
85.3373, 19822.6
85.3898, 20823.8
85.4424, 20715.4
85.495, 19617.9
85.5476, 19954.6
85.6002, 19867.2
85.6527, 18609.1
85.7053, 18612.4
85.7579, 20379.8
85.8105, 19013.9
85.8631, 18901.3
85.9156, 19457.8
85.9682, 20212.7
86.0208, 19089.9
86.0734, 18041.1
86.1259, 18548.9
86.1785, 18806.8
86.2311, 18816.3
86.2837, 19329.9
86.3363, 18930.8
86.3888, 18727.2
86.4414, 18953.2
86.494, 19846.2
86.5466, 19434
86.5991, 17949.2
86.6517, 18326.8
86.7043, 18793.3
86.7569, 18183
86.8095, 19780.9
86.862, 20104
86.9146, 19357.7
86.9672, 18502.5
87.0198, 19376.6
87.0723, 17801.9
87.1249, 17861.4
87.1775, 17794
87.2301, 18678.7
87.2827, 20133.4
87.3352, 19772.5
87.3878, 19735.4
87.4404, 17985.2
87.493, 18488.8
87.5456, 18355.7
87.5981, 18054.4
87.6507, 18030.3
87.7033, 18803.7
87.7559, 18198.5
87.8084, 17229
87.861, 17730.2
87.9136, 19438.6
87.9662, 18125.8
88.0188, 17880.6
88.0713, 17444
88.1239, 17801.9
88.1765, 18246.2
88.2291, 18129.3
88.2816, 18440.2
88.3342, 18613.6
88.3868, 19581.1
88.4394, 19681.5
88.492, 16798.8
88.5445, 17327.5
88.5971, 17148
88.6497, 17978.3
88.7023, 17752.8
88.7548, 17293.1
88.8074, -28152.4
#ENDOFDATA   : End Of Data and File
